Cooling Curve : CIE:Solar											

log(T)	ne	nH	nt	log(lambda net)	log(lambda norm)	log(U)	log(taucool)	P12	rho24	Ci	mubar

4.00	0.0023	1.000	1.099	-25.65	-23.06	-11.64	11.37	1.532	2.386	8.012	2.166
4.05	0.0142	1.000	1.099	-24.27	-22.46	-11.59	10.83	1.737	2.386	8.533	2.143
4.10	0.0704	1.000	1.099	-23.28	-22.17	-11.52	10.58	2.048	2.386	9.264	2.040
4.15	0.2534	1.000	1.099	-22.47	-21.92	-11.40	10.38	2.657	2.386	10.55	1.764
4.20	0.5678	1.000	1.099	-21.99	-21.79	-11.26	10.30	3.674	2.387	12.41	1.431
4.25	0.8177	1.000	1.099	-21.84	-21.80	-11.15	10.36	4.740	2.387	14.09	1.245
4.30	0.9324	1.000	1.099	-21.85	-21.86	-11.08	10.48	5.637	2.387	15.37	1.175
4.35	0.9780	1.000	1.099	-21.87	-21.90	-11.02	10.57	6.467	2.387	16.46	1.149
4.40	1.004	1.000	1.099	-21.84	-21.88	-10.96	10.60	7.347	2.387	17.54	1.135
4.45	1.035	1.000	1.099	-21.77	-21.82	-10.90	10.59	8.366	2.387	18.72	1.118
4.50	1.067	1.000	1.099	-21.66	-21.73	-10.85	10.55	9.528	2.387	19.98	1.102
4.55	1.086	1.000	1.099	-21.56	-21.63	-10.79	10.50	10.78	2.387	21.25	1.092
4.60	1.094	1.000	1.099	-21.45	-21.53	-10.74	10.45	12.14	2.387	22.56	1.088
4.65	1.098	1.000	1.099	-21.34	-21.42	-10.69	10.39	13.65	2.387	23.91	1.087
4.70	1.100	1.000	1.099	-21.24	-21.32	-10.64	10.34	15.32	2.387	25.34	1.086
4.75	1.102	1.000	1.099	-21.14	-21.22	-10.59	10.29	17.22	2.387	26.86	1.084
4.80	1.110	1.000	1.099	-21.05	-21.14	-10.54	10.25	19.38	2.387	28.50	1.080
4.85	1.128	1.000	1.099	-20.97	-21.07	-10.49	10.23	21.92	2.387	30.31	1.072
4.90	1.154	1.000	1.099	-20.91	-21.01	-10.43	10.23	24.89	2.387	32.29	1.059
4.95	1.176	1.000	1.099	-20.87	-20.98	-10.38	10.25	28.19	2.387	34.37	1.049
5.00	1.188	1.000	1.099	-20.87	-20.99	-10.32	10.30	31.81	2.387	36.50	1.043
5.05	1.195	1.000	1.099	-20.90	-21.02	-10.27	10.38	35.79	2.387	38.72	1.041
5.10	1.198	1.000	1.099	-20.91	-21.03	-10.22	10.45	40.21	2.387	41.04	1.039
5.15	1.199	1.000	1.099	-20.89	-21.01	-10.17	10.48	45.14	2.387	43.49	1.039
5.20	1.200	1.000	1.099	-20.86	-20.98	-10.12	10.50	50.67	2.387	46.07	1.038
5.25	1.201	1.000	1.099	-20.85	-20.97	-10.07	10.54	56.87	2.387	48.81	1.038
5.30	1.201	1.000	1.099	-20.84	-20.96	-10.02	10.58	63.82	2.387	51.71	1.038
5.35	1.201	1.000	1.099	-20.84	-20.96	-9.972	10.63	71.62	2.387	54.78	1.038
5.40	1.202	1.000	1.099	-20.87	-20.99	-9.922	10.71	80.38	2.387	58.03	1.037
5.45	1.203	1.000	1.099	-21.01	-21.13	-9.872	10.90	90.22	2.387	61.48	1.037
5.50	1.203	1.000	1.099	-21.23	-21.35	-9.822	11.17	101.2	2.387	65.13	1.037
5.55	1.204	1.000	1.099	-21.43	-21.55	-9.772	11.42	113.6	2.387	68.99	1.037
5.60	1.204	1.000	1.099	-21.54	-21.66	-9.722	11.58	127.5	2.387	73.08	1.036
5.65	1.204	1.000	1.099	-21.58	-21.71	-9.672	11.67	143.1	2.387	77.41	1.036
5.70	1.204	1.000	1.099	-21.59	-21.71	-9.622	11.73	160.5	2.387	82.00	1.036
5.75	1.204	1.000	1.099	-21.59	-21.71	-9.572	11.78	180.1	2.387	86.87	1.036
5.80	1.204	1.000	1.099	-21.64	-21.76	-9.522	11.88	202.1	2.387	92.02	1.036
5.85	1.205	1.000	1.099	-21.74	-21.86	-9.471	12.03	226.8	2.387	97.47	1.036
5.90	1.205	1.000	1.099	-21.81	-21.93	-9.421	12.15	254.5	2.387	103.3	1.036
5.95	1.205	1.000	1.099	-21.83	-21.95	-9.371	12.22	285.6	2.387	109.4	1.036
6.00	1.205	1.000	1.099	-21.84	-21.96	-9.321	12.28	320.4	2.387	115.9	1.036
6.05	1.205	1.000	1.099	-21.84	-21.96	-9.271	12.33	359.6	2.387	122.7	1.036
6.10	1.206	1.000	1.099	-21.83	-21.96	-9.221	12.37	403.5	2.387	130.0	1.036
6.15	1.206	1.000	1.099	-21.82	-21.95	-9.171	12.41	452.8	2.387	137.7	1.036
6.20	1.206	1.000	1.099	-21.82	-21.94	-9.121	12.46	508.1	2.387	145.9	1.035
6.25	1.206	1.000	1.099	-21.85	-21.97	-9.071	12.54	570.1	2.387	154.5	1.035
6.30	1.207	1.000	1.099	-21.95	-22.07	-9.021	12.69	639.8	2.387	163.7	1.035
6.35	1.207	1.000	1.099	-22.08	-22.20	-8.971	12.87	717.9	2.387	173.4	1.035
6.40	1.207	1.000	1.099	-22.19	-22.31	-8.921	13.03	805.6	2.387	183.7	1.035
6.45	1.208	1.000	1.099	-22.27	-22.39	-8.871	13.16	904.0	2.387	194.6	1.035
6.50	1.208	1.000	1.099	-22.32	-22.44	-8.821	13.26	1014.5	2.387	206.1	1.035
6.55	1.208	1.000	1.099	-22.35	-22.48	-8.771	13.34	1138.3	2.387	218.4	1.035
6.60	1.208	1.000	1.099	-22.38	-22.50	-8.721	13.42	1277.3	2.387	231.3	1.035
6.65	1.208	1.000	1.099	-22.41	-22.53	-8.671	13.50	1433.2	2.387	245.0	1.034
6.70	1.208	1.000	1.099	-22.44	-22.56	-8.621	13.58	1608.2	2.387	259.6	1.034
6.75	1.208	1.000	1.099	-22.46	-22.59	-8.571	13.65	1804.4	2.387	274.9	1.034
6.80	1.208	1.000	1.099	-22.48	-22.60	-8.521	13.72	2024.7	2.387	291.2	1.034
6.85	1.209	1.000	1.099	-22.48	-22.60	-8.471	13.77	2271.8	2.387	308.5	1.034
6.90	1.209	1.000	1.099	-22.46	-22.59	-8.421	13.80	2549.1	2.387	326.8	1.034
6.95	1.209	1.000	1.099	-22.45	-22.57	-8.371	13.84	2860.2	2.387	346.1	1.034
7.00	1.209	1.000	1.099	-22.45	-22.57	-8.321	13.89	3209.2	2.387	366.7	1.034
7.05	1.209	1.000	1.099	-22.46	-22.59	-8.271	13.95	3600.9	2.387	388.4	1.034
7.10	1.209	1.000	1.099	-22.49	-22.62	-8.221	14.03	4040.4	2.387	411.4	1.034
7.15	1.209	1.000	1.099	-22.53	-22.65	-8.171	14.12	4533.5	2.387	435.8	1.034
7.20	1.209	1.000	1.099	-22.56	-22.68	-8.121	14.20	5086.8	2.387	461.6	1.034
7.25	1.209	1.000	1.099	-22.58	-22.70	-8.071	14.27	5707.5	2.387	489.0	1.034
7.30	1.209	1.000	1.099	-22.60	-22.72	-8.021	14.34	6404.0	2.387	518.0	1.034
7.35	1.209	1.000	1.099	-22.61	-22.73	-7.971	14.40	7185.4	2.387	548.6	1.034
7.40	1.209	1.000	1.099	-22.61	-22.73	-7.921	14.45	8062.2	2.387	581.2	1.034
7.45	1.209	1.000	1.099	-22.61	-22.73	-7.871	14.50	9046.0	2.387	615.6	1.034
7.50	1.209	1.000	1.099	-22.60	-22.73	-7.821	14.54	10149.8	2.387	652.1	1.034
7.55	1.209	1.000	1.099	-22.60	-22.72	-7.771	14.59	11388.3	2.387	690.7	1.034
7.60	1.209	1.000	1.099	-22.59	-22.71	-7.721	14.63	12777.9	2.387	731.6	1.034
7.65	1.209	1.000	1.099	-22.57	-22.70	-7.671	14.66	14337.1	2.387	775.0	1.034
7.70	1.209	1.000	1.099	-22.56	-22.68	-7.621	14.70	16086.6	2.387	820.9	1.034
7.75	1.209	1.000	1.099	-22.54	-22.67	-7.571	14.73	18049.5	2.387	869.6	1.034
7.80	1.209	1.000	1.099	-22.53	-22.65	-7.521	14.77	20251.9	2.387	921.1	1.034
7.85	1.209	1.000	1.099	-22.51	-22.64	-7.471	14.80	22723.1	2.387	975.7	1.034
7.90	1.209	1.000	1.099	-22.49	-22.62	-7.421	14.83	25495.8	2.387	1033.5	1.034
7.95	1.209	1.000	1.099	-22.48	-22.60	-7.371	14.87	28606.9	2.387	1094.7	1.034
8.00	1.209	1.000	1.099	-22.46	-22.58	-7.321	14.90	32097.6	2.387	1159.6	1.034
8.05	1.209	1.000	1.099	-22.44	-22.56	-7.271	14.93	36014.2	2.387	1228.3	1.034
8.10	1.209	1.000	1.099	-22.42	-22.54	-7.221	14.96	40408.7	2.387	1301.1	1.034
8.15	1.209	1.000	1.099	-22.40	-22.53	-7.171	14.99	45339.4	2.387	1378.2	1.034
8.20	1.209	1.000	1.099	-22.38	-22.51	-7.121	15.02	50871.7	2.387	1459.8	1.034
8.25	1.209	1.000	1.099	-22.36	-22.49	-7.071	15.05	57079.1	2.387	1546.3	1.034
8.30	1.209	1.000	1.099	-22.34	-22.47	-7.021	15.08	64044.0	2.387	1638.0	1.034
8.35	1.209	1.000	1.099	-22.32	-22.45	-6.971	15.11	71858.6	2.387	1735.0	1.034
8.40	1.209	1.000	1.099	-22.30	-22.43	-6.921	15.14	80626.8	2.387	1837.8	1.034
8.45	1.209	1.000	1.099	-22.28	-22.40	-6.871	15.17	90464.8	2.387	1946.7	1.034
8.50	1.209	1.000	1.099	-22.26	-22.38	-6.821	15.20	101503	2.387	2062.1	1.034
						